X-ray (ID 01) / Crystal angle ?_c	X-ray (ID 01) / Impulse Imp
?_c/°	Imp/# / s

44,0	63
44,2	62
44,4	62
44,6	63
44,8	63
45,0	62
45,2	68
45,4	63
45,6	65
45,8	65
46,0	63
46,2	64
46,4	66
46,6	65
46,8	61
47,0	62
47,2	66
47,4	68
47,6	65
47,8	65
48,0	66
48,2	73
48,4	71
48,6	67
48,8	68
49,0	66
49,2	67
49,4	73
49,6	67
49,8	68
50,0	66
