X-ray (ID 01) / Crystal angle ?_c	X-ray (ID 01) / Impulse Imp
?_c/°	Imp/# / s

51,0	65
51,2	66
51,4	64
51,6	67
51,8	71
52,0	71
52,2	68
52,4	65
52,6	70
52,8	68
53,0	66
53,2	67
53,4	71
53,6	73
53,8	70
54,0	70
54,2	68
54,4	75
54,6	72
54,8	74
55,0	73
55,2	68
55,4	70
55,6	74
55,8	64
56,0	72
