X-ray (ID 01) / Crystal angle ?_c	X-ray (ID 01) / Impulse Imp
?_c/°	Imp/# / s

9,0	3
9,1	3
9,2	4
9,3	2
9,4	3
9,5	3
9,6	3
9,7	7
9,8	7
9,9	10
10,0	15
10,1	23
10,2	28
10,3	41
10,4	40
10,5	52
10,6	50
10,7	58
10,8	63
10,9	57
11,0	70
11,1	72
11,2	77
11,3	75
11,4	76
11,5	82
11,6	86
11,7	91
11,8	91
11,9	84
12,0	97
12,1	85
12,2	96
12,3	99
12,4	111
12,5	107
12,6	107
12,7	103
12,8	111
12,9	101
13,0	113
13,1	112
13,2	105
13,3	96
13,4	103
13,5	100
13,6	94
