X-ray (ID 01) / Crystal angle ?_c	X-ray (ID 01) / Impulse Imp
?_c/°	Imp/# / s

18,5	0
18,6	0
18,7	0
18,8	0
18,9	0
19,0	0
19,1	0
19,2	0
19,3	0
19,4	0
19,5	0
19,6	0
19,7	0
19,8	0
19,9	0
20,0	0
20,1	0
20,2	0
20,3	0
20,4	1
20,5	1
20,6	1
20,7	3
20,8	2
20,9	4
21,0	3
21,1	6
21,2	5
21,3	8
21,4	3
21,5	6
21,6	6
21,7	6
21,8	5
21,9	7
22,0	8
22,1	7
22,2	9
22,3	7
22,4	7
22,5	6
22,6	8
22,7	7
22,8	7
